#Collected Data-197
#Intensity_unit=counts
#Attenuator_coefficient=1.000000
44.0000 85.8571
44.0500 86.8562
44.1000 118.3759
44.1500 151.0875
44.2000 213.9431
44.2500 302.9024
44.3000 448.8069
44.3500 739.0226
44.4000 958.1017
44.4500 1096.1024
44.5000 1008.2144
44.5500 812.2551
44.6000 627.3359
44.6500 421.6631
44.7000 286.9229
44.7500 149.2353
44.8000 134.0414
44.8500 100.9708
44.9000 88.9359
44.9500 89.1909
45.0000 47.9015
